OOIBase32 Version 1.0.0.8 Data File
++++++++++++++++++++++++++++++++++++
Date: Wednesday, January 16, 1980, 02:36:33
User: Valued Ocean Optics Customer
Spectrometer Serial Number: Unknown
Spectrometer Channel: Master
Integration Time (msec): 3
Spectra Averaged: 10
Boxcar Smoothing: 0
Correct for Electrical Dark: Disabled
Time Normalized: Disabled
Dual-beam Reference: Disabled
Reference Channel: Master
>>>>>Begin Spectral Data<<<<<
179.00	0.0000
179.38	0.0000
179.75	70.5000
180.13	71.1000
180.51	72.3000
180.88	72.6000
181.26	71.5000
181.64	71.7000
182.02	72.6000
182.39	70.8000
182.77	71.0000
183.15	70.6000
183.52	70.5000
183.90	71.1000
184.28	71.9000
184.65	70.3000
185.03	71.3000
185.41	71.1000
185.78	70.6000
186.16	70.5000
186.53	70.6000
186.91	70.2000
187.29	71.8000
187.66	72.3000
188.04	73.5000
188.42	73.1000
188.79	71.4000
189.17	71.5000
189.55	72.4000
189.92	71.6000
190.30	73.1000
190.67	72.0000
191.05	72.2000
191.43	72.4000
191.80	72.2000
192.18	72.2000
192.56	71.5000
192.93	71.5000
193.31	71.2000
193.68	72.4000
194.06	73.0000
194.44	73.1000
194.81	72.8000
195.19	71.7000
195.56	73.0000
195.94	72.2000
196.32	72.8000
196.69	70.3000
197.07	71.2000
197.44	73.8000
197.82	72.9000
198.19	72.9000
198.57	73.2000
198.95	72.6000
199.32	74.3000
199.70	70.3000
200.07	70.5000
200.45	71.1000
200.82	72.9000
201.20	73.3000
201.57	71.1000
201.95	72.3000
202.33	73.1000
202.70	72.6000
203.08	73.9000
203.45	72.3000
203.83	71.4000
204.20	72.1000
204.58	72.9000
204.95	74.0000
205.33	73.2000
205.70	73.4000
206.08	72.8000
206.45	72.1000
206.83	73.0000
207.20	73.7000
207.58	73.1000
207.95	73.0000
208.33	72.2000
208.70	73.0000
209.08	74.4000
209.45	72.5000
209.83	74.5000
210.20	71.4000
210.58	73.5000
210.95	73.4000
211.33	71.5000
211.70	73.0000
212.08	73.6000
212.45	71.4000
212.83	72.2000
213.20	74.7000
213.58	72.1000
213.95	73.4000
214.33	71.5000
214.70	73.1000
215.07	73.1000
215.45	74.2000
215.82	72.9000
216.20	72.0000
216.57	73.2000
216.95	73.0000
217.32	71.8000
217.70	73.9000
218.07	73.1000
218.44	74.0000
218.82	73.8000
219.19	74.4000
219.57	73.4000
219.94	72.9000
220.32	74.1000
220.69	73.0000
221.06	73.3000
221.44	73.4000
221.81	72.6000
222.19	73.1000
222.56	73.1000
222.93	74.0000
223.31	72.5000
223.68	73.4000
224.06	73.3000
224.43	72.0000
224.80	73.2000
225.18	75.1000
225.55	73.8000
225.92	74.4000
226.30	71.9000
226.67	73.9000
227.05	73.2000
227.42	74.6000
227.79	71.8000
228.17	72.6000
228.54	73.1000
228.91	72.8000
229.29	72.7000
229.66	73.8000
230.03	74.1000
230.41	74.8000
230.78	72.0000
231.15	72.5000
231.53	72.2000
231.90	72.8000
232.27	73.1000
232.65	73.2000
233.02	74.1000
233.39	74.8000
233.77	73.5000
234.14	71.9000
234.51	73.0000
234.89	72.7000
235.26	72.8000
235.63	75.2000
236.01	73.9000
236.38	74.3000
236.75	72.7000
237.12	75.1000
237.50	73.3000
237.87	71.8000
238.24	72.8000
238.62	73.2000
238.99	73.8000
239.36	74.1000
239.73	74.2000
240.11	73.4000
240.48	72.3000
240.85	73.8000
241.23	74.5000
241.60	72.6000
241.97	73.0000
242.34	72.9000
242.72	73.5000
243.09	73.8000
243.46	73.1000
243.83	74.4000
244.21	72.8000
244.58	73.6000
244.95	71.3000
245.32	72.3000
245.70	73.3000
246.07	74.5000
246.44	72.0000
246.81	71.8000
247.18	72.7000
247.56	73.3000
247.93	72.9000
248.30	72.2000
248.67	72.7000
249.04	73.6000
249.42	72.9000
249.79	73.8000
250.16	72.2000
250.53	72.7000
250.90	72.6000
251.28	73.9000
251.65	72.9000
252.02	71.2000
252.39	73.4000
252.76	73.0000
253.14	73.5000
253.51	72.7000
253.88	74.2000
254.25	73.8000
254.62	72.9000
254.99	73.7000
255.37	73.4000
255.74	72.6000
256.11	74.0000
256.48	73.0000
256.85	73.7000
257.22	73.9000
257.59	73.2000
257.97	73.8000
258.34	73.0000
258.71	73.0000
259.08	73.7000
259.45	73.7000
259.82	74.7000
260.19	74.5000
260.56	74.5000
260.94	75.0000
261.31	75.0000
261.68	76.0000
262.05	74.5000
262.42	75.2000
262.79	75.8000
263.16	75.8000
263.53	77.6000
263.90	75.4000
264.28	77.9000
264.65	78.0000
265.02	76.8000
265.39	78.3000
265.76	78.1000
266.13	78.3000
266.50	79.5000
266.87	76.9000
267.24	78.7000
267.61	80.0000
267.98	80.6000
268.35	80.6000
268.72	80.3000
269.09	80.5000
269.46	80.2000
269.84	81.4000
270.21	82.1000
270.58	81.4000
270.95	82.6000
271.32	82.0000
271.69	81.4000
272.06	82.0000
272.43	82.0000
272.80	81.4000
273.17	82.4000
273.54	83.3000
273.91	82.6000
274.28	83.3000
274.65	83.0000
275.02	83.3000
275.39	82.5000
275.76	82.8000
276.13	84.5000
276.50	83.0000
276.87	82.3000
277.24	86.1000
277.61	85.2000
277.98	84.0000
278.35	84.5000
278.72	84.3000
279.09	83.4000
279.46	85.2000
279.83	84.8000
280.20	83.9000
280.57	86.9000
280.94	86.0000
281.31	85.9000
281.67	87.3000
282.04	86.8000
282.41	85.9000
282.78	85.5000
283.15	87.2000
283.52	87.3000
283.89	90.9000
284.26	87.8000
284.63	88.3000
285.00	89.1000
285.37	89.3000
285.74	89.9000
286.11	89.4000
286.48	90.7000
286.85	90.9000
287.21	89.0000
287.58	90.8000
287.95	91.2000
288.32	92.7000
288.69	90.6000
289.06	90.5000
289.43	90.9000
289.80	92.3000
290.17	91.6000
290.54	91.6000
290.90	92.6000
291.27	95.1000
291.64	94.2000
292.01	92.4000
292.38	93.3000
292.75	92.9000
293.12	92.8000
293.48	94.8000
293.85	93.8000
294.22	93.9000
294.59	95.0000
294.96	95.4000
295.33	94.9000
295.70	97.2000
296.06	94.9000
296.43	95.0000
296.80	94.1000
297.17	95.2000
297.54	96.9000
297.91	95.5000
298.27	97.4000
298.64	99.3000
299.01	99.3000
299.38	98.1000
299.75	98.1000
300.11	100.0000
300.48	97.0000
300.85	99.0000
301.22	98.7000
301.59	98.8000
301.95	100.1000
302.32	98.7000
302.69	99.8000
303.06	98.2000
303.43	99.3000
303.79	99.8000
304.16	101.2000
304.53	100.5000
304.90	102.8000
305.26	102.0000
305.63	100.8000
306.00	100.0000
306.37	102.3000
306.73	100.8000
307.10	103.5000
307.47	104.8000
307.84	104.2000
308.20	104.8000
308.57	107.0000
308.94	105.1000
309.31	104.8000
309.67	104.0000
310.04	104.8000
310.41	103.9000
310.77	105.1000
311.14	104.7000
311.51	104.6000
311.88	107.3000
312.24	105.6000
312.61	105.1000
312.98	104.8000
313.34	107.2000
313.71	107.7000
314.08	108.0000
314.44	107.2000
314.81	108.4000
315.18	108.2000
315.55	108.0000
315.91	108.8000
316.28	107.9000
316.65	108.3000
317.01	109.5000
317.38	109.4000
317.75	108.8000
318.11	111.3000
318.48	110.7000
318.84	111.0000
319.21	111.1000
319.58	111.3000
319.94	110.3000
320.31	111.5000
320.68	112.0000
321.04	112.9000
321.41	114.2000
321.78	112.3000
322.14	113.7000
322.51	114.3000
322.87	114.3000
323.24	114.2000
323.61	115.4000
323.97	114.4000
324.34	114.7000
324.70	115.9000
325.07	116.2000
325.44	114.9000
325.80	116.3000
326.17	118.0000
326.53	117.3000
326.90	116.5000
327.27	118.4000
327.63	118.0000
328.00	119.3000
328.36	121.8000
328.73	120.8000
329.09	118.8000
329.46	120.3000
329.83	120.8000
330.19	120.3000
330.56	121.6000
330.92	122.5000
331.29	120.5000
331.65	122.6000
332.02	122.8000
332.38	123.5000
332.75	122.0000
333.11	122.5000
333.48	124.7000
333.84	124.4000
334.21	126.3000
334.58	125.2000
334.94	122.7000
335.31	124.7000
335.67	125.1000
336.04	126.1000
336.40	127.1000
336.77	124.2000
337.13	125.4000
337.50	125.3000
337.86	128.1000
338.22	129.7000
338.59	128.5000
338.95	127.5000
339.32	131.2000
339.68	131.4000
340.05	130.1000
340.41	129.0000
340.78	128.4000
341.14	132.3000
341.51	131.2000
341.87	133.1000
342.24	134.3000
342.60	136.3000
342.96	135.0000
343.33	136.8000
343.69	136.0000
344.06	139.2000
344.42	138.4000
344.79	137.8000
345.15	141.3000
345.51	140.8000
345.88	142.2000
346.24	143.6000
346.61	143.4000
346.97	145.9000
347.34	144.3000
347.70	145.2000
348.06	147.4000
348.43	150.9000
348.79	149.4000
349.16	150.7000
349.52	150.1000
349.88	150.8000
350.25	154.8000
350.61	150.9000
350.97	152.0000
351.34	153.6000
351.70	156.1000
352.07	154.5000
352.43	154.5000
352.79	155.8000
353.16	160.5000
353.52	159.7000
353.88	159.7000
354.25	159.3000
354.61	161.3000
354.97	160.9000
355.34	161.8000
355.70	163.0000
356.06	162.2000
356.43	166.3000
356.79	165.0000
357.15	168.7000
357.52	165.5000
357.88	168.0000
358.24	169.1000
358.60	169.9000
358.97	174.5000
359.33	175.2000
359.69	171.4000
360.06	177.2000
360.42	177.9000
360.78	181.3000
361.14	180.5000
361.51	179.1000
361.87	185.6000
362.23	186.4000
362.60	188.7000
362.96	189.7000
363.32	189.1000
363.68	192.8000
364.05	193.7000
364.41	193.2000
364.77	196.7000
365.13	197.0000
365.50	200.4000
365.86	205.7000
366.22	207.4000
366.58	204.9000
366.95	208.5000
367.31	205.3000
367.67	213.5000
368.03	208.3000
368.39	216.5000
368.76	217.0000
369.12	209.6000
369.48	214.9000
369.84	217.0000
370.20	224.5000
370.57	219.2000
370.93	223.6000
371.29	218.2000
371.65	225.4000
372.01	225.6000
372.38	223.9000
372.74	228.2000
373.10	222.1000
373.46	230.2000
373.82	232.2000
374.18	228.1000
374.55	229.5000
374.91	235.2000
375.27	242.9000
375.63	238.1000
375.99	236.2000
376.35	240.3000
376.71	237.9000
377.08	242.2000
377.44	247.7000
377.80	259.8000
378.16	256.4000
378.52	261.7000
378.88	265.6000
379.24	262.3000
379.60	271.1000
379.97	279.2000
380.33	278.0000
380.69	270.8000
381.05	272.6000
381.41	286.2000
381.77	280.1000
382.13	283.4000
382.49	283.0000
382.85	276.6000
383.21	289.8000
383.57	270.8000
383.94	298.6000
384.30	294.7000
384.66	291.9000
385.02	278.2000
385.38	290.0000
385.74	287.6000
386.10	295.3000
386.46	310.7000
386.82	302.5000
387.18	315.0000
387.54	311.6000
387.90	302.1000
388.26	316.0000
388.62	315.0000
388.98	301.4000
389.34	307.2000
389.70	309.6000
390.06	285.5000
390.42	290.7000
390.78	324.0000
391.14	345.2000
391.50	329.2000
391.86	348.6000
392.22	361.9000
392.58	347.1000
392.94	308.2000
393.30	321.6000
393.66	331.0000
394.02	338.1000
394.38	297.6000
394.74	320.4000
395.10	321.7000
395.46	331.6000
395.82	338.3000
396.18	324.8000
396.54	360.0000
396.90	372.6000
397.26	360.0000
397.62	353.0000
397.98	388.9000
398.34	339.0000
398.70	345.9000
399.05	315.4000
399.41	320.6000
399.77	331.0000
400.13	344.4000
400.49	354.3000
400.85	350.9000
401.21	327.9000
401.57	364.9000
401.93	337.3000
402.29	333.6000
402.65	343.5000
403.00	356.6000
403.36	359.9000
403.72	352.0000
404.08	397.6000
404.44	362.4000
404.80	369.3000
405.16	372.5000
405.52	370.0000
405.87	380.6000
406.23	375.4000
406.59	331.3000
406.95	352.7000
407.31	363.5000
407.67	364.9000
408.03	366.1000
408.38	375.7000
408.74	400.0000
409.10	404.2000
409.46	368.8000
409.82	380.3000
410.17	371.0000
410.53	357.9000
410.89	373.9000
411.25	337.6000
411.61	359.3000
411.97	385.5000
412.32	386.0000
412.68	396.5000
413.04	366.0000
413.40	333.0000
413.75	356.1000
414.11	351.7000
414.47	348.2000
414.83	398.8000
415.19	366.0000
415.54	340.4000
415.90	383.9000
416.26	371.9000
416.62	379.7000
416.97	341.1000
417.33	385.8000
417.69	383.7000
418.05	375.3000
418.40	353.8000
418.76	353.3000
419.12	393.5000
419.48	402.8000
419.83	431.5000
420.19	387.6000
420.55	398.9000
420.90	455.2000
421.26	426.3000
421.62	385.4000
421.98	420.2000
422.33	441.3000
422.69	453.6000
423.05	433.2000
423.40	374.6000
423.76	365.9000
424.12	411.6000
424.47	406.7000
424.83	380.3000
425.19	381.1000
425.54	386.7000
425.90	416.9000
426.26	424.1000
426.61	444.1000
426.97	349.7000
427.33	412.5000
427.68	407.1000
428.04	459.2000
428.40	468.3000
428.75	493.5000
429.11	434.6000
429.47	500.6000
429.82	488.9000
430.18	450.9000
430.53	432.6000
430.89	432.6000
431.25	413.2000
431.60	429.2000
431.96	411.5000
432.31	411.7000
432.67	455.1000
433.03	480.1000
433.38	435.0000
433.74	446.4000
434.09	440.9000
434.45	432.8000
434.81	410.4000
435.16	447.8000
435.52	412.0000
435.87	403.3000
436.23	402.7000
436.58	400.7000
436.94	427.6000
437.30	451.7000
437.65	456.0000
438.01	458.4000
438.36	426.7000
438.72	414.9000
439.07	401.0000
439.43	421.6000
439.78	461.7000
440.14	505.0000
440.49	450.1000
440.85	460.5000
441.20	481.9000
441.56	458.6000
441.91	498.2000
442.27	451.5000
442.62	461.7000
442.98	481.8000
443.33	462.0000
443.69	473.5000
444.04	452.5000
444.40	424.8000
444.75	475.4000
445.11	505.6000
445.46	510.1000
445.82	497.8000
446.17	461.7000
446.53	481.0000
446.88	532.8000
447.23	443.6000
447.59	444.2000
447.94	443.9000
448.30	459.1000
448.65	448.5000
449.01	482.7000
449.36	476.8000
449.72	501.0000
450.07	519.2000
450.42	486.8000
450.78	459.6000
451.13	492.3000
451.49	462.9000
451.84	457.1000
452.19	434.4000
452.55	448.2000
452.90	461.1000
453.26	506.3000
453.61	514.2000
453.96	426.8000
454.32	485.9000
454.67	469.7000
455.02	422.4000
455.38	450.8000
455.73	451.1000
456.09	502.9000
456.44	505.0000
456.79	500.2000
457.15	480.0000
457.50	475.7000
457.85	476.2000
458.21	489.6000
458.56	485.0000
458.91	476.3000
459.27	444.5000
459.62	468.4000
459.97	478.0000
460.32	485.3000
460.68	456.7000
461.03	433.6000
461.38	449.4000
461.74	496.0000
462.09	478.2000
462.44	461.9000
462.80	482.8000
463.15	484.7000
463.50	478.4000
463.85	504.1000
464.21	515.4000
464.56	542.8000
464.91	480.3000
465.26	485.3000
465.62	492.7000
465.97	514.1000
466.32	499.1000
466.67	499.0000
467.03	485.0000
467.38	492.1000
467.73	488.1000
468.08	502.6000
468.44	506.7000
468.79	484.0000
469.14	466.4000
469.49	483.0000
469.85	492.9000
470.20	531.7000
470.55	535.4000
470.90	532.6000
471.25	494.3000
471.61	525.4000
471.96	527.9000
472.31	562.0000
472.66	560.6000
473.01	572.3000
473.36	578.4000
473.72	588.2000
474.07	600.2000
474.42	601.1000
474.77	610.8000
475.12	615.9000
475.47	622.1000
475.83	625.4000
476.18	611.8000
476.53	611.2000
476.88	646.9000
477.23	641.7000
477.58	636.7000
477.93	640.6000
478.28	641.7000
478.64	661.2000
478.99	676.6000
479.34	683.6000
479.69	698.6000
480.04	702.2000
480.39	704.0000
480.74	692.7000
481.09	733.2000
481.44	728.6000
481.79	715.8000
482.15	723.3000
482.50	734.7000
482.85	741.3000
483.20	777.9000
483.55	789.1000
483.90	825.1000
484.25	974.8000
484.60	1095.1000
484.95	1189.8000
485.30	1134.5000
485.65	1013.3000
486.00	956.4000
486.35	864.8000
486.70	823.8000
487.05	824.5000
487.40	813.6000
487.75	808.4000
488.10	806.5000
488.45	801.4000
488.80	793.5000
489.15	817.0000
489.50	809.6000
489.85	814.6000
490.20	813.2000
490.55	820.8000
490.90	820.8000
491.25	820.9000
491.60	811.9000
491.95	809.0000
492.30	824.3000
492.65	828.8000
493.00	826.5000
493.35	820.1000
493.70	826.3000
494.05	818.6000
494.40	834.3000
494.75	853.5000
495.10	859.8000
495.45	865.4000
495.80	865.2000
496.15	846.6000
496.50	830.1000
496.84	831.8000
497.19	830.8000
497.54	845.6000
497.89	850.0000
498.24	855.8000
498.59	858.8000
498.94	847.1000
499.29	841.0000
499.64	846.8000
499.99	860.3000
500.33	865.8000
500.68	869.4000
501.03	869.6000
501.38	870.9000
501.73	879.1000
502.08	872.7000
502.43	881.2000
502.77	873.1000
503.12	868.3000
503.47	859.8000
503.82	865.3000
504.17	867.8000
504.52	875.9000
504.86	874.8000
505.21	883.7000
505.56	875.2000
505.91	870.1000
506.26	865.3000
506.61	877.0000
506.95	880.5000
507.30	878.5000
507.65	884.3000
508.00	875.0000
508.35	879.9000
508.69	880.2000
509.04	886.0000
509.39	878.6000
509.74	887.3000
510.08	887.4000
510.43	900.0000
510.78	894.7000
511.13	898.4000
511.47	904.2000
511.82	903.7000
512.17	892.1000
512.52	895.4000
512.86	901.1000
513.21	893.9000
513.56	884.1000
513.91	892.1000
514.25	888.1000
514.60	888.6000
514.95	889.0000
515.30	897.2000
515.64	895.9000
515.99	902.9000
516.34	898.4000
516.68	897.5000
517.03	897.4000
517.38	899.9000
517.72	921.5000
518.07	917.1000
518.42	917.8000
518.76	917.4000
519.11	916.7000
519.46	911.9000
519.80	906.2000
520.15	908.5000
520.50	915.2000
520.84	911.0000
521.19	915.1000
521.54	921.5000
521.88	904.2000
522.23	919.4000
522.58	916.6000
522.92	921.4000
523.27	933.5000
523.61	931.4000
523.96	926.7000
524.31	939.8000
524.65	939.1000
525.00	937.5000
525.34	919.9000
525.69	927.3000
526.04	937.0000
526.38	937.7000
526.73	932.5000
527.07	944.1000
527.42	937.9000
527.76	952.7000
528.11	954.6000
528.46	942.7000
528.80	945.7000
529.15	938.0000
529.49	936.1000
529.84	941.1000
530.18	943.7000
530.53	956.7000
530.87	949.0000
531.22	944.2000
531.56	955.2000
531.91	968.4000
532.25	970.1000
532.60	974.2000
532.94	974.4000
533.29	968.3000
533.63	959.9000
533.98	957.4000
534.32	965.0000
534.67	973.3000
535.01	966.1000
535.36	946.3000
535.70	955.4000
536.05	954.5000
536.39	969.5000
536.74	964.7000
537.08	965.0000
537.43	968.0000
537.77	981.8000
538.12	984.9000
538.46	991.0000
538.80	991.2000
539.15	975.1000
539.49	988.0000
539.84	998.1000
540.18	989.0000
540.53	984.5000
540.87	988.8000
541.21	995.2000
541.56	985.3000
541.90	987.2000
542.25	989.4000
542.59	981.6000
542.93	998.8000
543.28	994.2000
543.62	1000.4000
543.97	1002.2000
544.31	1002.7000
544.65	987.9000
545.00	991.9000
545.34	998.5000
545.68	993.8000
546.03	986.8000
546.37	1022.8000
546.71	1031.0000
547.06	1038.8000
547.40	1030.0000
547.74	1034.4000
548.09	1018.5000
548.43	1007.2000
548.77	997.5000
549.12	994.5000
549.46	982.4000
549.80	991.5000
550.15	994.6000
550.49	997.5000
550.83	1011.6000
551.17	1024.4000
551.52	1023.9000
551.86	1021.4000
552.20	1019.7000
552.55	1029.9000
552.89	1021.6000
553.23	1006.6000
553.57	1011.6000
553.92	1007.7000
554.26	1028.7000
554.60	1027.9000
554.94	1032.4000
555.29	1032.9000
555.63	1033.2000
555.97	1031.1000
556.31	1034.4000
556.66	1034.6000
557.00	1023.9000
557.34	1025.4000
557.68	1032.5000
558.02	1032.4000
558.37	1042.3000
558.71	1043.7000
559.05	1051.6000
559.39	1076.3000
559.73	1089.7000
560.08	1080.5000
560.42	1088.7000
560.76	1072.2000
561.10	1068.8000
561.44	1057.0000
561.78	1070.7000
562.13	1075.6000
562.47	1071.2000
562.81	1080.1000
563.15	1078.5000
563.49	1075.4000
563.83	1074.4000
564.17	1071.6000
564.52	1065.8000
564.86	1059.5000
565.20	1057.5000
565.54	1064.6000
565.88	1080.1000
566.22	1084.2000
566.56	1092.3000
566.90	1109.8000
567.24	1133.8000
567.59	1146.4000
567.93	1173.1000
568.27	1195.8000
568.61	1226.9000
568.95	1231.9000
569.29	1242.5000
569.63	1279.7000
569.97	1294.6000
570.31	1310.4000
570.65	1333.1000
570.99	1333.3000
571.33	1325.0000
571.67	1309.8000
572.01	1342.7000
572.35	1379.5000
572.69	1402.8000
573.03	1411.3000
573.37	1440.9000
573.71	1442.0000
574.05	1416.2000
574.39	1390.5000
574.73	1387.4000
575.07	1376.6000
575.41	1391.1000
575.75	1393.9000
576.09	1444.0000
576.43	1506.6000
576.77	1547.8000
577.11	1545.7000
577.45	1500.4000
577.79	1450.2000
578.13	1449.4000
578.47	1419.0000
578.81	1425.8000
579.15	1411.1000
579.49	1427.9000
579.83	1522.2000
580.17	1620.1000
580.51	1688.1000
580.85	1705.4000
581.19	1616.5000
581.53	1535.1000
581.87	1447.9000
582.20	1366.0000
582.54	1327.4000
582.88	1316.9000
583.22	1346.9000
583.56	1387.2000
583.90	1450.6000
584.24	1485.1000
584.58	1467.6000
584.92	1426.8000
585.25	1389.0000
585.59	1360.7000
585.93	1374.8000
586.27	1401.8000
586.61	1384.3000
586.95	1397.4000
587.29	1375.7000
587.62	1335.2000
587.96	1309.0000
588.30	1280.8000
588.64	1253.4000
588.98	1252.7000
589.31	1239.7000
589.65	1215.1000
589.99	1200.2000
590.33	1203.4000
590.67	1194.4000
591.01	1219.3000
591.34	1276.5000
591.68	1331.7000
592.02	1380.4000
592.36	1369.9000
592.69	1339.4000
593.03	1316.8000
593.37	1301.8000
593.71	1299.9000
594.04	1316.9000
594.38	1300.8000
594.72	1292.0000
595.06	1249.5000
595.39	1232.9000
595.73	1233.1000
596.07	1239.4000
596.41	1246.9000
596.74	1236.6000
597.08	1238.5000
597.42	1279.2000
597.76	1293.7000
598.09	1325.1000
598.43	1312.4000
598.77	1312.8000
599.10	1322.0000
599.44	1315.2000
599.78	1307.8000
600.11	1297.1000
600.45	1296.7000
600.79	1259.9000
601.12	1259.1000
601.46	1252.3000
601.80	1279.8000
602.13	1279.1000
602.47	1292.4000
602.81	1288.5000
603.14	1264.8000
603.48	1249.1000
603.82	1239.8000
604.15	1232.9000
604.49	1250.7000
604.82	1246.9000
605.16	1242.2000
605.50	1227.1000
605.83	1257.1000
606.17	1249.0000
606.50	1253.5000
606.84	1235.6000
607.18	1227.7000
607.51	1217.7000
607.85	1212.0000
608.18	1199.9000
608.52	1213.6000
608.86	1213.8000
609.19	1235.3000
609.53	1203.9000
609.86	1207.3000
610.20	1202.0000
610.53	1186.8000
610.87	1167.8000
611.20	1183.0000
611.54	1152.9000
611.87	1161.3000
612.21	1166.4000
612.54	1153.4000
612.88	1152.4000
613.21	1166.3000
613.55	1178.4000
613.88	1179.1000
614.22	1194.3000
614.55	1180.3000
614.89	1164.1000
615.22	1146.5000
615.56	1137.0000
615.89	1128.3000
616.23	1121.6000
616.56	1107.2000
616.90	1117.5000
617.23	1097.4000
617.57	1100.9000
617.90	1086.6000
618.24	1093.0000
618.57	1088.6000
618.90	1084.7000
619.24	1081.4000
619.57	1058.6000
619.91	1054.5000
620.24	1024.6000
620.58	1042.7000
620.91	1059.7000
621.24	1059.4000
621.58	1074.9000
621.91	1075.4000
622.25	1082.3000
622.58	1068.7000
622.91	1070.9000
623.25	1058.8000
623.58	1063.6000
623.91	1050.3000
624.25	1036.4000
624.58	1030.1000
624.92	1030.3000
625.25	1024.2000
625.58	1017.5000
625.92	1025.7000
626.25	1021.5000
626.58	1023.9000
626.92	1002.8000
627.25	1001.6000
627.58	995.2000
627.91	997.9000
628.25	1000.0000
628.58	998.7000
628.91	995.6000
629.25	995.3000
629.58	982.3000
629.91	971.0000
630.25	966.5000
630.58	958.9000
630.91	944.7000
631.24	943.6000
631.58	941.6000
631.91	935.0000
632.24	922.5000
632.57	929.4000
632.91	926.5000
633.24	922.0000
633.57	921.5000
633.90	917.2000
634.24	916.9000
634.57	921.2000
634.90	927.2000
635.23	914.7000
635.56	924.1000
635.90	922.4000
636.23	924.8000
636.56	919.8000
636.89	928.0000
637.22	918.7000
637.56	915.8000
637.89	903.5000
638.22	911.6000
638.55	908.5000
638.88	897.7000
639.21	900.6000
639.55	895.6000
639.88	895.1000
640.21	890.4000
640.54	881.1000
640.87	876.3000
641.20	878.9000
641.53	877.0000
641.87	875.1000
642.20	875.8000
642.53	868.6000
642.86	877.6000
643.19	871.0000
643.52	861.4000
643.85	861.8000
644.18	865.6000
644.51	858.7000
644.84	862.6000
645.18	854.0000
645.51	851.6000
645.84	848.8000
646.17	845.0000
646.50	849.7000
646.83	858.7000
647.16	861.5000
647.49	869.6000
647.82	879.7000
648.15	880.9000
648.48	878.0000
648.81	878.7000
649.14	865.9000
649.47	871.3000
649.80	866.3000
650.13	860.1000
650.46	869.3000
650.79	866.0000
651.12	874.0000
651.45	871.0000
651.78	867.7000
652.11	871.5000
652.44	865.5000
652.77	868.1000
653.10	861.3000
653.43	867.0000
653.76	869.4000
654.09	921.3000
654.42	1548.9000
654.75	2420.5000
655.08	2916.5000
655.41	2980.3000
655.74	2388.5000
656.07	1961.8000
656.39	1678.3000
656.72	1435.0000
657.05	1194.3000
657.38	1029.5000
657.71	936.8000
658.04	890.8000
658.37	868.7000
658.70	860.3000
659.03	843.0000
659.36	836.1000
659.68	836.3000
660.01	831.7000
660.34	830.9000
660.67	833.8000
661.00	836.6000
661.33	825.8000
661.66	824.9000
661.98	827.1000
662.31	829.1000
662.64	822.4000
662.97	813.4000
663.30	807.3000
663.63	804.1000
663.95	804.8000
664.28	804.5000
664.61	805.7000
664.94	806.4000
665.27	800.7000
665.59	784.5000
665.92	786.3000
666.25	780.8000
666.58	775.1000
666.91	795.2000
667.23	785.9000
667.56	783.9000
667.89	793.9000
668.22	790.0000
668.54	797.2000
668.87	802.8000
669.20	795.1000
669.53	792.2000
669.85	792.2000
670.18	793.7000
670.51	801.7000
670.83	806.9000
671.16	819.0000
671.49	821.2000
671.82	816.6000
672.14	805.5000
672.47	794.8000
672.80	799.7000
673.12	790.0000
673.45	793.4000
673.78	776.3000
674.10	787.7000
674.43	774.8000
674.76	772.6000
675.08	777.6000
675.41	774.4000
675.74	768.6000
676.06	772.1000
676.39	765.1000
676.72	770.2000
677.04	776.5000
677.37	783.2000
677.69	774.8000
678.02	765.8000
678.35	779.1000
678.67	774.2000
679.00	782.9000
679.32	783.1000
679.65	763.4000
679.98	767.9000
680.30	766.5000
680.63	758.8000
680.95	758.7000
681.28	753.5000
681.60	737.7000
681.93	732.9000
682.26	734.2000
682.58	738.5000
682.91	737.0000
683.23	737.6000
683.56	740.2000
683.88	753.6000
684.21	753.9000
684.53	764.7000
684.86	766.3000
685.18	759.2000
685.51	755.7000
685.83	746.8000
686.16	737.6000
686.48	728.1000
686.81	726.8000
687.13	729.2000
687.46	718.9000
687.78	720.5000
688.11	710.0000
688.43	712.2000
688.76	718.4000
689.08	712.2000
689.41	708.2000
689.73	706.0000
690.05	707.1000
690.38	715.5000
690.70	719.3000
691.03	716.0000
691.35	715.1000
691.68	708.2000
692.00	710.2000
692.32	715.5000
692.65	706.6000
692.97	705.8000
693.29	699.0000
693.62	691.2000
693.94	692.6000
694.27	683.3000
694.59	676.1000
694.91	675.9000
695.24	667.6000
695.56	660.2000
695.88	673.6000
696.21	675.6000
696.53	681.8000
696.85	681.3000
697.18	676.8000
697.50	672.0000
697.82	681.3000
698.15	665.2000
698.47	662.7000
698.79	656.3000
699.12	656.6000
699.44	641.9000
699.76	644.0000
700.09	643.5000
700.41	641.0000
700.73	630.1000
701.05	643.3000
701.38	644.0000
701.70	644.8000
702.02	653.1000
702.34	641.4000
702.67	638.3000
702.99	638.2000
703.31	632.3000
703.63	636.7000
703.96	625.6000
704.28	621.0000
704.60	617.9000
704.92	624.0000
705.25	626.9000
705.57	637.8000
705.89	645.2000
706.21	661.4000
706.53	664.9000
706.86	667.8000
707.18	668.0000
707.50	669.1000
707.82	648.6000
708.14	654.2000
708.46	655.4000
708.79	637.8000
709.11	640.7000
709.43	633.7000
709.75	629.5000
710.07	626.9000
710.39	628.8000
710.71	619.0000
711.04	614.2000
711.36	608.9000
711.68	611.6000
712.00	614.1000
712.32	618.1000
712.64	612.4000
712.96	621.5000
713.28	616.5000
713.60	615.8000
713.92	612.8000
714.24	616.8000
714.57	611.8000
714.89	612.6000
715.21	610.8000
715.53	599.4000
715.85	600.9000
716.17	600.2000
716.49	585.9000
716.81	592.3000
717.13	594.9000
717.45	590.0000
717.77	590.4000
718.09	587.2000
718.41	589.2000
718.73	581.4000
719.05	578.4000
719.37	565.7000
719.69	572.0000
720.01	569.3000
720.33	563.1000
720.65	561.0000
720.97	558.6000
721.29	555.5000
721.61	554.6000
721.93	551.1000
722.25	545.7000
722.57	545.0000
722.89	544.2000
723.21	547.0000
723.52	540.1000
723.84	535.9000
724.16	546.4000
724.48	541.7000
724.80	549.1000
725.12	546.8000
725.44	544.0000
725.76	542.8000
726.08	542.9000
726.40	541.9000
726.72	541.3000
727.03	549.4000
727.35	543.8000
727.67	536.0000
727.99	537.5000
728.31	536.6000
728.63	536.4000
728.95	544.8000
729.26	543.7000
729.58	548.6000
729.90	556.1000
730.22	553.3000
730.54	557.8000
730.86	562.9000
731.17	564.4000
731.49	553.1000
731.81	545.2000
732.13	545.8000
732.45	541.1000
732.76	543.6000
733.08	549.4000
733.40	555.7000
733.72	553.8000
734.03	549.0000
734.35	550.4000
734.67	545.0000
734.99	541.8000
735.30	546.1000
735.62	537.3000
735.94	537.6000
736.26	532.9000
736.57	531.3000
736.89	538.2000
737.21	524.1000
737.53	519.7000
737.84	524.3000
738.16	519.8000
738.48	528.0000
738.79	533.8000
739.11	527.1000
739.43	516.9000
739.74	513.9000
740.06	505.9000
740.38	496.0000
740.69	486.9000
741.01	486.2000
741.33	480.9000
741.64	482.0000
741.96	478.0000
742.28	477.5000
742.59	461.9000
742.91	461.0000
743.23	456.3000
743.54	455.0000
743.86	451.3000
744.17	448.0000
744.49	447.6000
744.81	445.7000
745.12	441.8000
745.44	437.3000
745.75	437.2000
746.07	435.5000
746.38	437.1000
746.70	440.7000
747.02	439.2000
747.33	435.3000
747.65	436.3000
747.96	434.2000
748.28	435.5000
748.59	437.6000
748.91	440.1000
749.22	446.7000
749.54	447.6000
749.85	454.1000
750.17	445.8000
750.48	440.5000
750.80	438.9000
751.11	435.0000
751.43	435.7000
751.74	436.5000
752.06	427.9000
752.37	426.3000
752.69	436.1000
753.00	434.7000
753.32	435.0000
753.63	433.9000
753.95	430.5000
754.26	426.4000
754.58	427.3000
754.89	427.2000
755.20	428.4000
755.52	436.9000
755.83	438.8000
756.15	445.6000
756.46	455.6000
756.78	455.9000
757.09	455.7000
757.40	453.5000
757.72	446.2000
758.03	437.2000
758.34	433.9000
758.66	438.5000
758.97	439.0000
759.29	439.9000
759.60	440.7000
759.91	438.4000
760.23	436.8000
760.54	439.5000
760.85	426.9000
761.17	420.9000
761.48	414.4000
761.79	411.0000
762.11	409.4000
762.42	410.9000
762.73	412.9000
763.05	418.9000
763.36	423.6000
763.67	426.7000
763.98	427.0000
764.30	428.2000
764.61	430.7000
764.92	420.0000
765.23	411.3000
765.55	400.3000
765.86	395.8000
766.17	398.0000
766.48	388.3000
766.80	380.3000
767.11	391.2000
767.42	388.4000
767.73	393.9000
768.05	399.3000
768.36	398.8000
768.67	398.2000
768.98	389.7000
769.29	390.1000
769.61	386.1000
769.92	378.6000
770.23	382.9000
770.54	380.7000
770.85	382.9000
771.17	376.7000
771.48	372.8000
771.79	371.5000
772.10	368.6000
772.41	369.7000
772.72	364.7000
773.03	361.3000
773.35	358.7000
773.66	358.8000
773.97	358.3000
774.28	353.3000
774.59	345.8000
774.90	350.4000
775.21	349.6000
775.52	343.6000
775.83	346.3000
776.15	342.2000
776.46	340.8000
776.77	336.9000
777.08	337.3000
777.39	335.6000
777.70	337.0000
778.01	339.3000
778.32	343.1000
778.63	342.9000
778.94	338.2000
779.25	334.1000
779.56	329.8000
779.87	330.2000
780.18	335.5000
780.49	337.6000
780.80	340.6000
781.11	337.0000
781.42	338.7000
781.73	332.3000
782.04	326.7000
782.35	328.9000
782.66	327.9000
782.97	327.2000
783.28	327.0000
783.59	321.4000
783.90	317.8000
784.21	317.6000
784.52	316.1000
784.83	312.9000
785.14	313.0000
785.45	313.2000
785.76	311.1000
786.06	310.5000
786.37	310.3000
786.68	306.6000
786.99	308.0000
787.30	308.6000
787.61	314.6000
787.92	314.3000
788.23	314.6000
788.54	314.6000
788.84	306.7000
789.15	304.1000
789.46	297.7000
789.77	295.5000
790.08	294.5000
790.39	293.1000
790.70	292.5000
791.00	292.9000
791.31	290.2000
791.62	291.7000
791.93	286.2000
792.24	284.3000
792.54	279.6000
792.85	283.8000
793.16	291.0000
793.47	293.6000
793.78	295.7000
794.08	294.3000
794.39	287.7000
794.70	288.0000
795.01	282.8000
795.31	275.1000
795.62	270.3000
795.93	267.4000
796.24	268.0000
796.54	264.4000
796.85	264.1000
797.16	261.0000
797.47	261.3000
797.77	258.9000
798.08	255.7000
798.39	257.9000
798.69	258.3000
799.00	256.4000
799.31	254.8000
799.62	253.0000
799.92	253.0000
800.23	252.2000
800.54	249.6000
800.84	247.8000
801.15	249.3000
801.46	249.1000
801.76	247.2000
802.07	244.9000
802.37	246.7000
802.68	246.5000
802.99	248.5000
803.29	245.9000
803.60	243.5000
803.91	241.6000
804.21	237.9000
804.52	242.7000
804.82	243.7000
805.13	243.0000
805.44	245.1000
805.74	246.2000
806.05	247.7000
806.35	243.7000
806.66	241.7000
806.96	241.4000
807.27	236.1000
807.57	235.1000
807.88	234.7000
808.19	235.5000
808.49	233.1000
808.80	230.4000
809.10	228.1000
809.41	228.9000
809.71	228.5000
810.02	226.4000
810.32	227.0000
810.63	225.4000
810.93	223.6000
811.24	220.2000
811.54	221.9000
811.85	217.8000
812.15	214.3000
812.45	211.9000
812.76	211.6000
813.06	215.7000
813.37	217.2000
813.67	216.1000
813.98	213.5000
814.28	210.4000
814.58	211.3000
814.89	207.3000
815.19	203.9000
815.50	205.6000
815.80	208.1000
816.11	207.3000
816.41	207.8000
816.71	206.5000
817.02	205.5000
817.32	205.4000
817.62	201.1000
817.93	201.0000
818.23	198.1000
818.53	199.7000
818.84	198.8000
819.14	198.7000
819.44	196.4000
819.75	198.5000
820.05	197.6000
820.35	198.3000
820.66	198.2000
820.96	197.2000
821.26	198.9000
821.57	196.4000
821.87	193.9000
822.17	194.0000
822.48	190.5000
822.78	190.6000
823.08	189.5000
823.38	186.9000
823.69	186.2000
823.99	187.3000
824.29	188.8000
824.59	185.5000
824.90	188.2000
825.20	189.0000
825.50	187.0000
825.80	187.4000
826.10	188.7000
826.41	188.7000
826.71	187.4000
827.01	188.0000
827.31	188.7000
827.61	185.0000
827.92	186.2000
828.22	183.0000
828.52	181.5000
828.82	179.6000
829.12	182.4000
829.42	180.4000
829.73	178.5000
830.03	179.1000
830.33	177.3000
830.63	173.2000
830.93	173.3000
831.23	170.3000
831.53	172.7000
831.83	172.2000
832.14	170.2000
832.44	171.7000
832.74	170.7000
833.04	172.0000
833.34	171.3000
833.64	169.6000
833.94	169.7000
834.24	169.3000
834.54	171.8000
834.84	169.2000
835.14	167.2000
835.44	167.5000
835.74	167.7000
836.04	167.3000
836.34	166.9000
836.64	163.1000
836.95	162.4000
837.25	160.6000
837.55	162.0000
837.85	159.9000
838.15	162.3000
838.45	159.6000
838.74	158.3000
839.04	157.0000
839.34	157.5000
839.64	156.4000
839.94	156.7000
840.24	158.0000
840.54	156.1000
840.84	158.2000
841.14	155.6000
841.44	157.5000
841.74	159.8000
842.04	158.9000
842.34	157.5000
842.64	153.8000
842.94	154.1000
843.24	154.6000
843.53	154.2000
843.83	152.4000
844.13	152.4000
844.43	153.2000
844.73	152.6000
845.03	153.0000
845.33	148.8000
845.63	148.8000
845.92	149.0000
846.22	149.8000
846.52	149.8000
846.82	150.1000
847.12	145.8000
847.42	147.9000
847.71	149.2000
848.01	146.1000
848.31	144.2000
848.61	145.8000
848.91	145.8000
849.20	144.6000
849.50	144.2000
849.80	146.1000
850.10	144.5000
850.39	142.7000
850.69	141.6000
850.99	144.9000
851.29	143.9000
851.59	142.2000
851.88	143.1000
852.18	142.8000
852.48	143.9000
852.77	142.9000
853.07	145.3000
853.37	144.3000
853.67	143.7000
853.96	142.2000
854.26	142.2000
854.56	143.4000
854.85	140.0000
855.15	141.5000
855.45	141.2000
855.74	141.0000
856.04	140.5000
856.34	142.5000
856.63	139.9000
856.93	139.7000
857.23	137.4000
857.52	136.7000
857.82	137.4000
858.11	137.3000
858.41	134.2000
858.71	134.7000
859.00	133.4000
859.30	132.2000
859.59	132.9000
859.89	132.5000
860.19	132.4000
860.48	131.9000
860.78	130.7000
861.07	131.3000
861.37	131.5000
861.66	129.3000
861.96	129.3000
862.26	130.5000
862.55	129.9000
862.85	129.0000
863.14	129.9000
863.44	129.0000
863.73	129.3000
864.03	127.5000
864.32	129.1000
864.62	128.3000
864.91	125.4000
865.21	128.5000
865.50	126.6000
865.80	126.8000
866.09	127.0000
866.39	125.8000
866.68	123.1000
866.97	125.4000
867.27	124.1000
867.56	125.0000
867.86	122.5000
868.15	123.5000
868.45	122.8000
868.74	123.7000
869.03	123.3000
869.33	122.5000
869.62	121.1000
869.92	121.7000
870.21	119.8000
870.50	121.2000
870.80	118.8000
871.09	118.3000
871.39	117.3000
871.68	120.3000
871.97	118.7000
872.27	117.1000
872.56	117.4000
872.85	115.1000
873.15	117.4000
873.44	116.6000
873.73	116.8000
874.03	117.1000
874.32	117.2000
874.61	115.0000
874.90	115.5000
875.20	114.2000
875.49	114.9000
875.78	115.6000
>>>>>End Spectral Data<<<<<
