OOIBase32 Version 1.0.0.8 Data File
++++++++++++++++++++++++++++++++++++
Date: Monday, January 21, 1980, 02:23:44
User: Valued Ocean Optics Customer
Spectrometer Serial Number: Unknown
Spectrometer Channel: Master
Integration Time (msec): 7
Spectra Averaged: 20
Boxcar Smoothing: 0
Correct for Electrical Dark: Disabled
Time Normalized: Disabled
Dual-beam Reference: Disabled
Reference Channel: Master
>>>>>Begin Spectral Data<<<<<
179.00	0.0000
179.38	0.0000
179.75	73.0500
180.13	74.4500
180.51	72.3500
180.88	73.5000
181.26	72.9000
181.64	73.4500
182.02	74.7000
182.39	73.3500
182.77	73.9000
183.15	74.1500
183.52	74.0000
183.90	74.5500
184.28	72.9000
184.65	73.5000
185.03	74.3500
185.41	74.1500
185.78	73.3500
186.16	73.1000
186.53	73.1500
186.91	74.1000
187.29	74.1000
187.66	74.1500
188.04	74.2000
188.42	75.7000
188.79	74.9500
189.17	74.8000
189.55	74.9500
189.92	74.6500
190.30	73.6000
190.67	73.8000
191.05	74.8500
191.43	74.9500
191.80	73.8500
192.18	74.3500
192.56	73.7000
192.93	74.1000
193.31	74.3000
193.68	74.4000
194.06	73.2000
194.44	74.8500
194.81	75.3000
195.19	74.4000
195.56	75.3500
195.94	74.6500
196.32	74.6000
196.69	75.2500
197.07	74.3500
197.44	74.7000
197.82	74.7000
198.19	74.5500
198.57	73.6000
198.95	73.0500
199.32	76.0000
199.70	74.8000
200.07	74.1000
200.45	75.6000
200.82	74.3000
201.20	74.7000
201.57	73.6000
201.95	74.2500
202.33	74.8000
202.70	75.3500
203.08	74.5500
203.45	75.0000
203.83	73.2000
204.20	73.7000
204.58	74.4000
204.95	73.3000
205.33	74.3000
205.70	74.7000
206.08	73.8000
206.45	73.9000
206.83	75.4000
207.20	75.4000
207.58	74.6500
207.95	74.5000
208.33	75.0000
208.70	75.0000
209.08	74.5000
209.45	74.5000
209.83	74.3000
210.20	74.6500
210.58	74.1500
210.95	74.6500
211.33	74.7500
211.70	74.7000
212.08	74.6500
212.45	75.1500
212.83	73.7500
213.20	73.9000
213.58	74.0500
213.95	75.3000
214.33	73.7000
214.70	74.6500
215.07	74.3500
215.45	75.0000
215.82	74.4500
216.20	73.6000
216.57	74.4500
216.95	74.2500
217.32	74.8500
217.70	74.9000
218.07	75.3500
218.44	74.6000
218.82	75.5500
219.19	75.5000
219.57	75.2500
219.94	74.7000
220.32	74.3500
220.69	73.7500
221.06	73.8000
221.44	75.2000
221.81	75.3000
222.19	75.7000
222.56	75.2500
222.93	75.6000
223.31	75.1000
223.68	75.3000
224.06	74.9500
224.43	76.3500
224.80	73.9500
225.18	75.3000
225.55	73.8000
225.92	74.3500
226.30	75.0000
226.67	75.7500
227.05	74.9000
227.42	74.4500
227.79	75.8000
228.17	75.0500
228.54	74.1500
228.91	74.6500
229.29	74.6000
229.66	75.4500
230.03	73.9000
230.41	74.9000
230.78	74.4500
231.15	74.9500
231.53	74.8000
231.90	74.6500
232.27	74.8500
232.65	74.8500
233.02	74.5000
233.39	73.9500
233.77	74.6500
234.14	74.8500
234.51	74.2000
234.89	75.1500
235.26	74.8000
235.63	73.7000
236.01	74.2500
236.38	75.6000
236.75	74.9500
237.12	74.4000
237.50	75.3500
237.87	75.9000
238.24	75.2000
238.62	75.5000
238.99	74.4000
239.36	74.4500
239.73	73.3500
240.11	75.2500
240.48	75.3000
240.85	74.3000
241.23	73.8500
241.60	74.5000
241.97	75.3000
242.34	74.4000
242.72	75.8500
243.09	74.3000
243.46	74.7000
243.83	74.1000
244.21	76.0000
244.58	75.0500
244.95	74.4000
245.32	74.8000
245.70	74.8000
246.07	74.0500
246.44	74.9500
246.81	74.9500
247.18	74.3000
247.56	75.7500
247.93	75.6000
248.30	75.2500
248.67	74.3000
249.04	75.1000
249.42	74.3500
249.79	74.7500
250.16	75.0000
250.53	73.9500
250.90	74.9500
251.28	74.1000
251.65	74.2000
252.02	74.9500
252.39	74.6500
252.76	74.3500
253.14	75.0500
253.51	75.5500
253.88	74.6000
254.25	74.6500
254.62	74.4500
254.99	74.7500
255.37	75.1000
255.74	74.3500
256.11	75.2000
256.48	74.7500
256.85	74.2000
257.22	75.2500
257.59	74.7000
257.97	74.8500
258.34	75.0000
258.71	75.3000
259.08	75.4000
259.45	74.4500
259.82	74.0000
260.19	74.8500
260.56	75.0500
260.94	74.7500
261.31	74.9000
261.68	75.2500
262.05	74.1500
262.42	74.4000
262.79	75.0000
263.16	74.7000
263.53	74.1000
263.90	74.7500
264.28	75.7000
264.65	75.2500
265.02	74.6500
265.39	75.0000
265.76	73.9000
266.13	74.4000
266.50	74.4500
266.87	75.3500
267.24	74.8000
267.61	74.8000
267.98	75.2000
268.35	75.9500
268.72	75.2500
269.09	75.8500
269.46	75.7500
269.84	75.4000
270.21	75.1500
270.58	76.0000
270.95	74.8000
271.32	75.8000
271.69	74.9500
272.06	73.9000
272.43	74.3000
272.80	74.4500
273.17	74.6500
273.54	75.2500
273.91	75.0500
274.28	75.6500
274.65	74.6500
275.02	75.1000
275.39	74.0000
275.76	75.1500
276.13	74.3500
276.50	75.2000
276.87	74.0000
277.24	75.7500
277.61	75.2500
277.98	74.9000
278.35	74.5000
278.72	75.2500
279.09	74.7000
279.46	75.2000
279.83	75.5500
280.20	75.0500
280.57	75.0000
280.94	74.6000
281.31	75.9000
281.67	74.7000
282.04	74.8500
282.41	75.2500
282.78	74.5500
283.15	74.8500
283.52	76.1500
283.89	75.4500
284.26	75.4000
284.63	75.3000
285.00	73.8500
285.37	74.4000
285.74	74.4500
286.11	74.9000
286.48	73.4500
286.85	74.3500
287.21	74.5000
287.58	74.6500
287.95	75.2500
288.32	74.3500
288.69	74.6500
289.06	74.8000
289.43	73.8500
289.80	74.3000
290.17	74.8500
290.54	74.9000
290.90	75.8000
291.27	75.6000
291.64	75.5500
292.01	75.4000
292.38	74.4000
292.75	76.1500
293.12	74.4000
293.48	74.3500
293.85	74.7500
294.22	74.7000
294.59	74.7500
294.96	74.3500
295.33	74.3500
295.70	74.4000
296.06	75.3500
296.43	74.2500
296.80	75.0000
297.17	74.7500
297.54	74.4500
297.91	74.7000
298.27	74.4000
298.64	75.2000
299.01	75.3000
299.38	74.6500
299.75	74.6500
300.11	75.0000
300.48	74.2000
300.85	75.8000
301.22	75.1000
301.59	74.8000
301.95	74.8500
302.32	75.7000
302.69	74.9000
303.06	75.0000
303.43	74.3000
303.79	75.4500
304.16	74.9000
304.53	75.4500
304.90	75.3000
305.26	73.9000
305.63	75.5500
306.00	74.8500
306.37	74.7500
306.73	74.9000
307.10	74.4000
307.47	75.3000
307.84	75.4500
308.20	74.9000
308.57	74.9000
308.94	75.4000
309.31	75.7500
309.67	75.8000
310.04	75.5500
310.41	74.1500
310.77	74.7000
311.14	74.6000
311.51	74.4000
311.88	74.8000
312.24	74.8500
312.61	74.9500
312.98	74.3500
313.34	74.0500
313.71	74.0000
314.08	74.9000
314.44	74.8500
314.81	75.8000
315.18	74.7500
315.55	74.1000
315.91	74.6500
316.28	75.3000
316.65	74.7000
317.01	75.2500
317.38	74.5500
317.75	75.4000
318.11	74.6500
318.48	75.4000
318.84	74.3000
319.21	75.4500
319.58	74.8500
319.94	75.1500
320.31	74.5000
320.68	75.2500
321.04	75.2500
321.41	75.7500
321.78	75.0500
322.14	75.5000
322.51	75.7500
322.87	75.0000
323.24	74.5000
323.61	76.0000
323.97	74.5000
324.34	75.4500
324.70	75.5000
325.07	76.0000
325.44	76.7500
325.80	76.4000
326.17	75.5000
326.53	74.9500
326.90	74.8000
327.27	75.4000
327.63	76.1500
328.00	74.6500
328.36	76.2000
328.73	75.4500
329.09	74.8000
329.46	75.1000
329.83	74.1500
330.19	75.6000
330.56	74.7000
330.92	74.7500
331.29	73.8500
331.65	75.0000
332.02	74.7000
332.38	74.4000
332.75	73.9500
333.11	76.0500
333.48	75.4000
333.84	74.1500
334.21	75.3500
334.58	74.5000
334.94	75.4000
335.31	74.3000
335.67	74.9000
336.04	74.4000
336.40	75.2500
336.77	74.7500
337.13	75.7000
337.50	75.3000
337.86	75.0500
338.22	75.6000
338.59	74.0500
338.95	74.4500
339.32	75.1000
339.68	75.5500
340.05	74.3000
340.41	74.7000
340.78	75.2500
341.14	75.8500
341.51	75.1500
341.87	76.0000
342.24	75.9000
342.60	74.6000
342.96	75.9500
343.33	75.1500
343.69	74.5500
344.06	74.1000
344.42	75.0500
344.79	75.1500
345.15	75.2500
345.51	74.9500
345.88	74.7500
346.24	74.8500
346.61	75.1000
346.97	76.3000
347.34	75.6500
347.70	75.8000
348.06	75.4000
348.43	74.5500
348.79	76.0000
349.16	75.0000
349.52	74.9000
349.88	76.4000
350.25	75.2500
350.61	75.6500
350.97	75.0000
351.34	75.3000
351.70	75.4500
352.07	75.1500
352.43	75.7000
352.79	75.1000
353.16	73.9000
353.52	75.8500
353.88	75.8000
354.25	75.3000
354.61	75.6000
354.97	74.8000
355.34	74.5500
355.70	76.1500
356.06	75.9000
356.43	76.1000
356.79	75.8500
357.15	75.8000
357.52	75.7500
357.88	74.9500
358.24	75.8000
358.60	76.6500
358.97	76.2500
359.33	75.9500
359.69	75.1000
360.06	76.3500
360.42	75.6500
360.78	76.6500
361.14	75.3500
361.51	76.0000
361.87	76.0500
362.23	76.0500
362.60	76.1500
362.96	76.0000
363.32	76.9500
363.68	76.7500
364.05	76.2000
364.41	75.6500
364.77	75.7000
365.13	76.1000
365.50	76.3500
365.86	76.0000
366.22	76.3500
366.58	75.8500
366.95	76.2000
367.31	76.5000
367.67	77.0000
368.03	77.1000
368.39	78.1000
368.76	77.6000
369.12	76.0500
369.48	76.7500
369.84	76.5000
370.20	77.1500
370.57	76.7000
370.93	76.8000
371.29	75.9500
371.65	77.4000
372.01	77.2500
372.38	77.4000
372.74	76.9500
373.10	77.8500
373.46	77.7500
373.82	77.4500
374.18	76.3500
374.55	76.7500
374.91	76.8000
375.27	76.7000
375.63	76.4500
375.99	78.0000
376.35	77.0500
376.71	77.6500
377.08	77.7500
377.44	77.0500
377.80	77.7500
378.16	78.3000
378.52	76.7000
378.88	77.2500
379.24	78.1000
379.60	79.1500
379.97	79.1000
380.33	78.4000
380.69	77.9500
381.05	77.4500
381.41	77.2000
381.77	78.5000
382.13	78.8000
382.49	78.1500
382.85	77.9000
383.21	79.2000
383.57	79.0500
383.94	78.3000
384.30	79.7500
384.66	78.7000
385.02	79.6000
385.38	80.1000
385.74	78.6000
386.10	79.4000
386.46	79.5000
386.82	79.6500
387.18	79.7000
387.54	79.1000
387.90	79.9000
388.26	79.6500
388.62	79.2000
388.98	79.6000
389.34	80.6000
389.70	79.1000
390.06	79.3500
390.42	80.2000
390.78	81.1000
391.14	79.9000
391.50	81.1500
391.86	82.2500
392.22	81.7500
392.58	81.3000
392.94	80.0500
393.30	81.1000
393.66	81.0500
394.02	80.0500
394.38	81.6000
394.74	80.8000
395.10	81.8000
395.46	83.0500
395.82	81.3500
396.18	82.5500
396.54	81.9000
396.90	83.0500
397.26	82.5500
397.62	81.7500
397.98	82.8500
398.34	83.1000
398.70	82.2000
399.05	82.8000
399.41	82.1500
399.77	82.2500
400.13	83.8000
400.49	82.5500
400.85	83.4500
401.21	82.6500
401.57	84.2000
401.93	84.2000
402.29	83.7000
402.65	84.2500
403.00	84.9000
403.36	85.1500
403.72	85.4000
404.08	85.7500
404.44	84.3500
404.80	84.4000
405.16	85.9000
405.52	87.0500
405.87	86.3000
406.23	86.7500
406.59	85.2000
406.95	86.6500
407.31	86.3500
407.67	87.4500
408.03	85.8500
408.38	87.8500
408.74	88.2500
409.10	88.0000
409.46	87.7000
409.82	87.9000
410.17	88.1000
410.53	87.2500
410.89	88.1500
411.25	87.0000
411.61	87.3500
411.97	89.2000
412.32	87.2500
412.68	89.4500
413.04	89.6000
413.40	87.6000
413.75	88.1500
414.11	88.3000
414.47	88.4000
414.83	90.8000
415.19	88.7500
415.54	89.7500
415.90	90.8000
416.26	89.4000
416.62	91.4000
416.97	89.0000
417.33	91.0000
417.69	91.7500
418.05	91.0000
418.40	89.8000
418.76	91.8500
419.12	93.0500
419.48	93.1000
419.83	94.2000
420.19	90.6000
420.55	91.5000
420.90	93.1500
421.26	91.7000
421.62	92.7000
421.98	94.3500
422.33	95.9000
422.69	95.2000
423.05	95.5500
423.40	92.9500
423.76	92.6000
424.12	95.4000
424.47	95.9500
424.83	96.0500
425.19	95.9000
425.54	94.8000
425.90	97.0000
426.26	98.1500
426.61	99.0500
426.97	93.6500
427.33	97.2000
427.68	97.8500
428.04	100.2500
428.40	102.6000
428.75	102.8500
429.11	100.6000
429.47	102.9000
429.82	103.1000
430.18	103.1000
430.53	101.4000
430.89	102.4500
431.25	103.5500
431.60	103.5500
431.96	103.9000
432.31	103.1500
432.67	106.4000
433.03	105.8000
433.38	104.2000
433.74	107.3500
434.09	106.8000
434.45	105.6000
434.81	105.3500
435.16	107.8000
435.52	106.5000
435.87	104.8000
436.23	106.0500
436.58	106.8500
436.94	109.9500
437.30	109.7000
437.65	112.5500
438.01	111.2500
438.36	110.7500
438.72	111.8000
439.07	109.7500
439.43	110.4500
439.78	115.5000
440.14	117.5500
440.49	114.2000
440.85	115.4000
441.20	116.4000
441.56	115.7000
441.91	121.5000
442.27	116.3500
442.62	116.5000
442.98	119.4000
443.33	117.3500
443.69	120.8000
444.04	121.7000
444.40	117.9500
444.75	122.7500
445.11	123.5000
445.46	126.7000
445.82	126.9000
446.17	121.9500
446.53	127.5000
446.88	133.4000
447.23	122.4500
447.59	124.7500
447.94	123.8000
448.30	129.4500
448.65	128.5000
449.01	132.9000
449.36	131.9000
449.72	137.9000
450.07	140.6500
450.42	137.3000
450.78	136.5000
451.13	138.3500
451.49	136.6000
451.84	134.4500
452.19	134.0500
452.55	137.9500
452.90	137.9000
453.26	143.7000
453.61	145.8500
453.96	134.4500
454.32	141.6000
454.67	140.9500
455.02	135.6000
455.38	140.0000
455.73	137.9500
456.09	142.7000
456.44	142.6500
456.79	141.3500
457.15	140.1500
457.50	136.6000
457.85	138.6500
458.21	136.5000
458.56	139.6000
458.91	137.6500
459.27	133.4000
459.62	135.3500
459.97	135.9500
460.32	138.4500
460.68	138.5500
461.03	138.0500
461.38	139.3000
461.74	145.0500
462.09	141.9500
462.44	138.4500
462.80	137.0500
463.15	138.2000
463.50	138.3000
463.85	143.6000
464.21	139.2000
464.56	144.0000
464.91	138.5000
465.26	140.9500
465.62	139.9500
465.97	144.1000
466.32	145.7000
466.67	144.3000
467.03	143.2500
467.38	144.8000
467.73	146.2000
468.08	147.9500
468.44	150.7500
468.79	149.0000
469.14	145.2000
469.49	149.2000
469.85	150.3500
470.20	157.9500
470.55	157.5500
470.90	156.3500
471.25	152.8000
471.61	155.9000
471.96	155.9000
472.31	159.4000
472.66	157.9500
473.01	159.9000
473.36	164.4500
473.72	163.8000
474.07	165.1500
474.42	165.2000
474.77	165.5000
475.12	168.2500
475.47	171.8500
475.83	173.5500
476.18	172.3000
476.53	170.4500
476.88	176.7500
477.23	177.0000
477.58	177.2000
477.93	178.7000
478.28	178.0500
478.64	180.1000
478.99	181.8000
479.34	185.0500
479.69	187.6500
480.04	188.8000
480.39	190.6500
480.74	188.9500
481.09	193.1500
481.44	196.1000
481.79	195.1000
482.15	196.8000
482.50	198.2500
482.85	200.8500
483.20	204.2500
483.55	203.3000
483.90	206.1000
484.25	208.3000
484.60	206.7000
484.95	209.7500
485.30	209.9500
485.65	212.1000
486.00	214.4500
486.35	210.6500
486.70	213.4000
487.05	220.1500
487.40	217.6000
487.75	221.1000
488.10	220.3500
488.45	222.0500
488.80	222.5000
489.15	228.0500
489.50	227.9500
489.85	227.2000
490.20	229.4000
490.55	230.8500
490.90	232.2000
491.25	234.2500
491.60	232.5500
491.95	233.6500
492.30	234.2500
492.65	238.0500
493.00	237.6000
493.35	239.2500
493.70	241.2000
494.05	243.0000
494.40	246.6000
494.75	245.3500
495.10	244.9000
495.45	246.0000
495.80	247.1000
496.15	249.3500
496.50	249.8000
496.84	248.8000
497.19	248.9500
497.54	252.7000
497.89	253.7000
498.24	253.1500
498.59	257.7000
498.94	256.8000
499.29	255.3500
499.64	255.3500
499.99	259.3500
500.33	260.8000
500.68	261.3000
501.03	261.5000
501.38	261.7000
501.73	266.2500
502.08	263.4500
502.43	266.8500
502.77	267.4000
503.12	268.2000
503.47	269.3500
503.82	271.7000
504.17	272.0500
504.52	275.8500
504.86	276.4500
505.21	279.4500
505.56	277.9500
505.91	277.6000
506.26	281.0500
506.61	281.1500
506.95	283.3000
507.30	283.6500
507.65	286.4500
508.00	287.9500
508.35	288.4500
508.69	288.5000
509.04	290.8500
509.39	291.3500
509.74	291.6500
510.08	292.8000
510.43	296.3500
510.78	296.7500
511.13	297.4000
511.47	299.2500
511.82	300.3000
512.17	300.3000
512.52	302.5000
512.86	303.5000
513.21	307.6500
513.56	306.9000
513.91	310.9500
514.25	309.2000
514.60	313.6500
514.95	314.0000
515.30	314.0000
515.64	315.0000
515.99	318.7000
516.34	318.7500
516.68	318.9000
517.03	324.4500
517.38	323.0000
517.72	327.4000
518.07	324.3000
518.42	325.9500
518.76	329.7000
519.11	330.9000
519.46	332.8500
519.80	333.8000
520.15	333.5500
520.50	336.9000
520.84	336.0000
521.19	339.0500
521.54	338.7500
521.88	338.3000
522.23	341.3000
522.58	340.2500
522.92	342.8500
523.27	343.6500
523.61	345.2500
523.96	346.8000
524.31	349.1500
524.65	352.4000
525.00	350.7000
525.34	348.6000
525.69	349.5500
526.04	353.1000
526.38	355.4500
526.73	351.9000
527.07	356.9500
527.42	356.2500
527.76	358.6000
528.11	360.0000
528.46	358.5000
528.80	359.0000
529.15	358.3000
529.49	359.6500
529.84	358.8000
530.18	361.7000
530.53	364.2000
530.87	364.6000
531.22	363.0500
531.56	365.5000
531.91	365.1000
532.25	363.9500
532.60	364.5500
532.94	364.6000
533.29	366.9000
533.63	366.8000
533.98	366.5500
534.32	369.5500
534.67	373.5500
535.01	371.2000
535.36	370.8500
535.70	374.7000
536.05	374.1500
536.39	376.3500
536.74	371.8500
537.08	370.4500
537.43	372.8500
537.77	374.7500
538.12	377.6000
538.46	379.3000
538.80	381.3000
539.15	377.3000
539.49	380.2000
539.84	381.5000
540.18	384.3500
540.53	382.9000
540.87	382.6000
541.21	384.8000
541.56	385.2000
541.90	386.0000
542.25	387.7000
542.59	386.0500
542.93	388.3500
543.28	387.0000
543.62	387.5000
543.97	388.9000
544.31	389.6000
544.65	391.9000
545.00	393.7000
545.34	393.4500
545.68	394.4500
546.03	394.3500
546.37	396.1000
546.71	397.6500
547.06	397.0000
547.40	396.6500
547.74	399.6000
548.09	401.4500
548.43	399.3500
548.77	400.9500
549.12	401.8000
549.46	401.4000
549.80	405.4000
550.15	406.5500
550.49	407.4000
550.83	407.1500
551.17	408.7000
551.52	410.3500
551.86	410.3000
552.20	410.8000
552.55	413.7000
552.89	411.6500
553.23	416.0500
553.57	417.2000
553.92	414.7500
554.26	419.8000
554.60	417.2000
554.94	419.7000
555.29	422.2000
555.63	422.5500
555.97	425.8000
556.31	423.9500
556.66	424.4500
557.00	424.8500
557.34	428.0500
557.68	429.4000
558.02	430.6000
558.37	430.0500
558.71	430.7000
559.05	430.5000
559.39	432.1500
559.73	434.8000
560.08	436.4500
560.42	437.0500
560.76	435.3000
561.10	441.1500
561.44	437.3500
561.78	438.5500
562.13	440.7000
562.47	439.1000
562.81	443.2500
563.15	440.2000
563.49	444.0000
563.83	447.0500
564.17	444.7000
564.52	448.0000
564.86	449.2000
565.20	447.7000
565.54	445.2000
565.88	445.8000
566.22	450.7000
566.56	448.3500
566.90	450.9000
567.24	454.9000
567.59	451.8000
567.93	452.2500
568.27	455.7000
568.61	457.5500
568.95	454.5000
569.29	455.5000
569.63	457.7500
569.97	457.7000
570.31	454.5500
570.65	455.9500
570.99	456.4500
571.33	460.4000
571.67	454.6000
572.01	457.4500
572.35	460.8500
572.69	459.2000
573.03	460.6500
573.37	461.4000
573.71	463.0500
574.05	456.0500
574.39	459.3000
574.73	460.9000
575.07	457.8000
575.41	460.5500
575.75	463.9000
576.09	465.6000
576.43	463.8500
576.77	463.7000
577.11	461.2000
577.45	463.2000
577.79	461.9000
578.13	464.2000
578.47	461.3000
578.81	463.4000
579.15	464.9500
579.49	468.9000
579.83	468.4500
580.17	469.7500
580.51	466.4000
580.85	466.4000
581.19	465.4500
581.53	467.1500
581.87	465.9000
582.20	468.9000
582.54	468.2000
582.88	468.2500
583.22	464.0500
583.56	464.8500
583.90	468.8000
584.24	468.6500
584.58	466.2500
584.92	470.9500
585.25	473.0500
585.59	468.2500
585.93	471.5000
586.27	473.2000
586.61	469.0000
586.95	472.7500
587.29	470.8000
587.62	466.7500
587.96	472.2000
588.30	471.8000
588.64	470.1500
588.98	472.9500
589.31	474.0000
589.65	472.2500
589.99	471.8000
590.33	474.4500
590.67	475.0500
591.01	475.8000
591.34	475.2000
591.68	475.9000
592.02	475.2500
592.36	475.2000
592.69	475.8000
593.03	475.6000
593.37	479.0000
593.71	478.1500
594.04	477.6000
594.38	479.4000
594.72	481.0000
595.06	478.7000
595.39	479.6000
595.73	479.8000
596.07	482.5500
596.41	483.0000
596.74	487.3000
597.08	481.7000
597.42	484.7000
597.76	482.4500
598.09	484.4000
598.43	482.7000
598.77	483.5500
599.10	487.2000
599.44	486.3500
599.78	484.7000
600.11	485.3000
600.45	489.0000
600.79	485.2500
601.12	486.2500
601.46	490.0000
601.80	488.7000
602.13	487.0000
602.47	489.1500
602.81	488.0000
603.14	488.2500
603.48	491.9000
603.82	489.6500
604.15	488.2000
604.49	493.6500
604.82	491.9500
605.16	492.7500
605.50	490.1500
605.83	494.4000
606.17	492.9500
606.50	495.8500
606.84	493.1500
607.18	491.5500
607.51	492.6000
607.85	494.4500
608.18	495.4000
608.52	499.2000
608.86	496.0000
609.19	500.2500
609.53	493.4500
609.86	500.6500
610.20	498.0000
610.53	496.9000
610.87	493.8500
611.20	502.6000
611.54	493.7500
611.87	496.0000
612.21	498.2500
612.54	494.4500
612.88	498.4500
613.21	499.2500
613.55	500.2000
613.88	496.9500
614.22	499.9000
614.55	495.9000
614.89	495.9000
615.22	494.6000
615.56	495.7500
615.89	495.8500
616.23	495.5500
616.56	491.2500
616.90	497.7000
617.23	493.2000
617.57	498.5500
617.90	494.6000
618.24	496.7500
618.57	498.0500
618.90	494.2000
619.24	494.3500
619.57	493.5500
619.91	499.3500
620.24	489.5000
620.58	496.5000
620.91	494.8000
621.24	496.1500
621.58	496.5000
621.91	493.6000
622.25	497.1000
622.58	494.7000
622.91	498.7500
623.25	493.0000
623.58	492.8500
623.91	493.9000
624.25	495.9000
624.58	493.8000
624.92	492.6500
625.25	495.3500
625.58	492.2000
625.92	495.9500
626.25	495.2500
626.58	497.2000
626.92	493.7500
627.25	498.6000
627.58	492.7000
627.91	494.0000
628.25	494.8500
628.58	497.2000
628.91	494.3000
629.25	495.6500
629.58	491.8500
629.91	493.4500
630.25	494.5000
630.58	492.2500
630.91	492.1500
631.24	494.6000
631.58	497.2000
631.91	496.7000
632.24	487.8000
632.57	491.3000
632.91	490.9500
633.24	490.8500
633.57	491.4000
633.90	490.3000
634.24	490.3500
634.57	492.0000
634.90	492.9000
635.23	485.3500
635.56	486.0500
635.90	488.0500
636.23	486.9500
636.56	488.6500
636.89	489.0000
637.22	489.1500
637.56	488.3500
637.89	484.7000
638.22	485.3000
638.55	488.3000
638.88	482.5500
639.21	486.3500
639.55	481.8000
639.88	487.5000
640.21	483.1000
640.54	484.2000
640.87	484.1000
641.20	482.8500
641.53	484.3500
641.87	483.2000
642.20	482.7000
642.53	480.7500
642.86	482.1500
643.19	486.9000
643.52	483.1000
643.85	479.4000
644.18	480.3500
644.51	482.1000
644.84	481.9500
645.18	481.3000
645.51	478.5500
645.84	478.1000
646.17	478.0500
646.50	481.2500
646.83	482.0500
647.16	473.7000
647.49	477.1500
647.82	479.6500
648.15	478.6000
648.48	477.7500
648.81	480.4000
649.14	474.8500
649.47	479.5500
649.80	475.8500
650.13	477.6500
650.46	478.9000
650.79	477.5000
651.12	479.4500
651.45	476.8500
651.78	473.0000
652.11	476.8000
652.44	474.3500
652.77	475.3000
653.10	477.3500
653.43	475.4500
653.76	479.2000
654.09	471.3500
654.42	475.3500
654.75	475.8500
655.08	475.0000
655.41	472.1500
655.74	469.4500
656.07	475.5500
656.39	473.8000
656.72	473.2000
657.05	472.2500
657.38	474.4000
657.71	475.5000
658.04	471.6500
658.37	473.8500
658.70	471.9000
659.03	471.2500
659.36	471.7000
659.68	472.6500
660.01	475.5500
660.34	471.7000
660.67	474.3000
661.00	473.3500
661.33	470.8000
661.66	469.4500
661.98	473.9000
662.31	471.3000
662.64	468.2500
662.97	470.5500
663.30	470.3500
663.63	468.4000
663.95	465.9500
664.28	465.6000
664.61	467.2500
664.94	467.9500
665.27	468.7500
665.59	467.2000
665.92	467.4500
666.25	466.8500
666.58	463.7000
666.91	468.7000
667.23	465.6000
667.56	464.1500
667.89	461.0500
668.22	462.7000
668.54	464.8000
668.87	463.9500
669.20	460.6500
669.53	462.0000
669.85	463.4500
670.18	461.2000
670.51	458.4500
670.83	458.8500
671.16	464.1500
671.49	463.3500
671.82	459.5000
672.14	456.2000
672.47	458.3000
672.80	458.0000
673.12	458.7000
673.45	460.1000
673.78	454.0000
674.10	459.9000
674.43	453.7500
674.76	453.3000
675.08	455.4500
675.41	453.6500
675.74	455.4000
676.06	454.1500
676.39	450.5500
676.72	450.2000
677.04	450.5500
677.37	453.6500
677.69	449.8000
678.02	444.1500
678.35	447.4000
678.67	441.7000
679.00	447.4500
679.32	447.0000
679.65	444.2000
679.98	447.2000
680.30	444.4000
680.63	442.5000
680.95	443.6500
681.28	442.9000
681.60	437.8500
681.93	439.1000
682.26	439.7000
682.58	439.4500
682.91	438.3500
683.23	436.7000
683.56	435.3000
683.88	435.8500
684.21	434.7500
684.53	434.5500
684.86	434.7000
685.18	433.1000
685.51	432.3500
685.83	433.6500
686.16	428.3500
686.48	426.5000
686.81	429.7500
687.13	427.7500
687.46	427.8500
687.78	429.4000
688.11	423.0500
688.43	426.8500
688.76	425.8000
689.08	422.9000
689.41	420.7500
689.73	420.9000
690.05	420.4500
690.38	418.8500
690.70	423.0500
691.03	416.5500
691.35	417.0000
691.68	413.2500
692.00	414.0000
692.32	417.5500
692.65	415.9000
692.97	415.8500
693.29	413.6500
693.62	412.6000
693.94	414.0000
694.27	411.2500
694.59	403.5000
694.91	411.0000
695.24	412.8500
695.56	406.3500
695.88	402.6500
696.21	399.0500
696.53	399.1500
696.85	403.2500
697.18	404.0000
697.50	402.0500
697.82	404.4000
698.15	402.7000
698.47	400.1500
698.79	401.4000
699.12	403.6000
699.44	395.7000
699.76	394.3500
700.09	393.8500
700.41	395.3000
700.73	391.9500
701.05	396.1500
701.38	393.1000
701.70	396.1500
702.02	396.2500
702.34	393.6000
702.67	393.0000
702.99	391.7000
703.31	388.4000
703.63	388.8000
703.96	389.2000
704.28	385.3500
704.60	387.1000
704.92	389.0500
705.25	385.6000
705.57	386.7500
705.89	384.4500
706.21	383.7500
706.53	382.8500
706.86	383.0500
707.18	381.0500
707.50	384.8500
707.82	379.4500
708.14	383.6000
708.46	382.4500
708.79	378.1500
709.11	381.7000
709.43	379.3000
709.75	374.6500
710.07	378.1000
710.39	380.2000
710.71	374.9500
711.04	376.9500
711.36	373.3500
711.68	373.1500
712.00	374.0500
712.32	373.5000
712.64	372.2500
712.96	370.3000
713.28	367.0500
713.60	370.5000
713.92	367.2500
714.24	371.5000
714.57	370.3500
714.89	368.2000
715.21	366.8000
715.53	363.8500
715.85	365.3500
716.17	367.9000
716.49	366.7000
716.81	364.8000
717.13	365.8000
717.45	361.7500
717.77	362.3000
718.09	359.2000
718.41	361.1500
718.73	360.6500
719.05	358.5000
719.37	354.4500
719.69	357.0500
720.01	355.3500
720.33	352.9500
720.65	352.8500
720.97	355.2500
721.29	353.3000
721.61	353.7500
721.93	351.2500
722.25	349.4500
722.57	350.6500
722.89	348.2500
723.21	348.7000
723.52	346.9500
723.84	345.0500
724.16	349.7000
724.48	346.8500
724.80	346.4000
725.12	345.2500
725.44	345.4500
725.76	344.1500
726.08	343.6000
726.40	342.2500
726.72	343.7000
727.03	345.1000
727.35	342.7000
727.67	341.0000
727.99	343.8000
728.31	343.8500
728.63	341.2500
728.95	341.7000
729.26	340.8000
729.58	339.7500
729.90	337.8500
730.22	332.4000
730.54	333.5000
730.86	337.3500
731.17	337.9500
731.49	332.7500
731.81	336.5000
732.13	336.8500
732.45	333.3000
732.76	332.5500
733.08	332.7500
733.40	331.7000
733.72	328.7500
734.03	330.7000
734.35	332.1500
734.67	332.3500
734.99	329.5500
735.30	331.0500
735.62	329.6000
735.94	329.5000
736.26	327.5500
736.57	327.2500
736.89	328.7500
737.21	325.1000
737.53	322.9000
737.84	323.5000
738.16	321.0500
738.48	322.2000
738.79	323.9500
739.11	319.4000
739.43	317.1000
739.74	318.4000
740.06	316.3000
740.38	316.4000
740.69	314.8000
741.01	312.9500
741.33	310.9000
741.64	311.2000
741.96	311.6500
742.28	309.7500
742.59	306.4000
742.91	306.8000
743.23	304.0500
743.54	305.7000
743.86	304.6000
744.17	306.3500
744.49	304.5500
744.81	302.0500
745.12	303.9500
745.44	300.4500
745.75	299.0000
746.07	299.4000
746.38	299.2500
746.70	297.4500
747.02	298.5000
747.33	294.6000
747.65	297.6000
747.96	296.5500
748.28	293.8000
748.59	295.4500
748.91	295.7000
749.22	293.6500
749.54	294.1500
749.85	295.7000
750.17	293.9000
750.48	291.1500
750.80	293.2000
751.11	292.9500
751.43	291.8000
751.74	290.9000
752.06	288.5500
752.37	288.8000
752.69	288.1000
753.00	287.5500
753.32	287.3000
753.63	290.0000
753.95	288.6000
754.26	286.1500
754.58	285.4500
754.89	287.9500
755.20	286.7000
755.52	287.0000
755.83	285.7000
756.15	284.5500
756.46	284.1500
756.78	284.3000
757.09	284.6500
757.40	282.4000
757.72	282.4000
758.03	282.0500
758.34	281.6500
758.66	283.5000
758.97	281.5000
759.29	282.2500
759.60	282.6500
759.91	278.1500
760.23	280.0000
760.54	282.3000
760.85	280.3000
761.17	279.1500
761.48	279.6000
761.79	277.3500
762.11	276.6500
762.42	276.7500
762.73	278.4500
763.05	275.7000
763.36	277.3500
763.67	277.0000
763.98	273.3000
764.30	271.3500
764.61	272.1500
764.92	273.2500
765.23	274.1000
765.55	270.4500
765.86	271.1000
766.17	271.3500
766.48	270.0000
766.80	266.3000
767.11	269.1000
767.42	265.0000
767.73	265.8500
768.05	266.4000
768.36	265.8500
768.67	267.8000
768.98	266.6500
769.29	266.1500
769.61	263.8500
769.92	260.7000
770.23	259.6000
770.54	258.9000
770.85	260.0500
771.17	260.3000
771.48	260.5000
771.79	261.9000
772.10	258.3000
772.41	259.1000
772.72	255.5000
773.03	255.4000
773.35	254.9000
773.66	250.8000
773.97	252.9500
774.28	250.6000
774.59	250.5000
774.90	251.7000
775.21	251.6000
775.52	249.9500
775.83	249.8000
776.15	248.7500
776.46	244.3500
776.77	246.5000
777.08	244.8500
777.39	245.6500
777.70	243.5500
778.01	243.9000
778.32	242.4500
778.63	245.0500
778.94	242.8500
779.25	241.2500
779.56	240.3000
779.87	239.2000
780.18	237.6500
780.49	238.8500
780.80	237.7000
781.11	235.0000
781.42	235.5000
781.73	233.5500
782.04	232.4000
782.35	230.2500
782.66	231.8500
782.97	230.9000
783.28	231.0000
783.59	230.8500
783.90	229.7000
784.21	228.4500
784.52	227.1000
784.83	228.9000
785.14	226.0000
785.45	225.8500
785.76	225.4000
786.06	224.4500
786.37	224.8500
786.68	223.0500
786.99	224.2500
787.30	221.0000
787.61	220.5500
787.92	218.9500
788.23	217.8500
788.54	219.7000
788.84	218.9500
789.15	219.9500
789.46	217.5500
789.77	216.3000
790.08	215.8500
790.39	211.8000
790.70	215.7500
791.00	214.8500
791.31	213.8000
791.62	213.1000
791.93	211.3000
792.24	211.7500
792.54	209.7500
792.85	207.9500
793.16	208.9500
793.47	207.8000
793.78	208.2500
794.08	208.6000
794.39	207.4500
794.70	206.6500
795.01	203.6500
795.31	204.5500
795.62	204.4500
795.93	204.0500
796.24	204.0500
796.54	203.2000
796.85	202.1500
797.16	200.2500
797.47	198.2500
797.77	200.2500
798.08	199.4500
798.39	199.6500
798.69	200.3500
799.00	197.8000
799.31	197.8500
799.62	194.9000
799.92	195.6000
800.23	194.7500
800.54	194.8500
800.84	195.0000
801.15	191.8000
801.46	194.8500
801.76	193.3500
802.07	192.0500
802.37	190.6500
802.68	189.8000
802.99	190.5000
803.29	188.5000
803.60	189.1500
803.91	189.2000
804.21	188.5000
804.52	187.7000
804.82	186.7000
805.13	186.1000
805.44	185.9000
805.74	185.8000
806.05	187.2000
806.35	183.9000
806.66	182.4500
806.96	183.9500
807.27	181.1000
807.57	182.3000
807.88	181.4000
808.19	181.1000
808.49	180.7000
808.80	179.0000
809.10	179.1000
809.41	178.0500
809.71	178.4500
810.02	176.9000
810.32	178.3000
810.63	177.6000
810.93	176.8000
811.24	177.2500
811.54	177.2500
811.85	175.3500
812.15	175.5000
812.45	176.2000
812.76	175.7000
813.06	173.0000
813.37	173.1500
813.67	173.6500
813.98	171.5000
814.28	173.6000
814.58	171.4500
814.89	171.1000
815.19	170.1500
815.50	169.0500
815.80	169.4000
816.11	168.8500
816.41	169.4500
816.71	168.7000
817.02	168.2000
817.32	166.6000
817.62	167.6500
817.93	167.9000
818.23	166.1000
818.53	165.6500
818.84	165.9500
819.14	164.1000
819.44	166.8000
819.75	165.8500
820.05	163.1000
820.35	162.2500
820.66	161.6500
820.96	162.4000
821.26	161.9500
821.57	162.3000
821.87	161.3000
822.17	162.1500
822.48	162.3000
822.78	160.7500
823.08	159.0000
823.38	161.0000
823.69	158.7500
823.99	157.7000
824.29	157.4000
824.59	157.0500
824.90	159.3500
825.20	157.8500
825.50	156.6500
825.80	156.1000
826.10	157.2000
826.41	156.6000
826.71	155.4000
827.01	154.7000
827.31	155.7000
827.61	154.6000
827.92	155.8500
828.22	156.7000
828.52	153.8000
828.82	152.9000
829.12	151.8500
829.42	153.2500
829.73	151.3000
830.03	153.9000
830.33	150.9000
830.63	151.5000
830.93	152.5500
831.23	148.9500
831.53	151.1000
831.83	150.5000
832.14	148.2000
832.44	149.0500
832.74	148.3000
833.04	149.7000
833.34	149.5000
833.64	148.1000
833.94	147.8000
834.24	147.9500
834.54	147.2500
834.84	147.1000
835.14	147.6500
835.44	147.8000
835.74	146.9500
836.04	145.8000
836.34	145.6000
836.64	146.3000
836.95	146.8500
837.25	147.0500
837.55	146.9000
837.85	145.2000
838.15	144.4000
838.45	144.7000
838.74	143.8500
839.04	143.3000
839.34	142.5500
839.64	142.2500
839.94	142.4500
840.24	142.2000
840.54	142.0000
840.84	141.7000
841.14	140.8500
841.44	140.6500
841.74	141.4500
842.04	142.2000
842.34	139.9000
842.64	139.6500
842.94	139.0500
843.24	139.4500
843.53	139.4000
843.83	139.4000
844.13	139.0500
844.43	139.0500
844.73	139.6500
845.03	138.4000
845.33	138.1500
845.63	139.4000
845.92	138.5500
846.22	136.8500
846.52	137.4500
846.82	136.9500
847.12	135.8000
847.42	135.7500
847.71	135.4000
848.01	136.1500
848.31	136.0500
848.61	134.7000
848.91	134.9500
849.20	134.6000
849.50	134.1000
849.80	134.3500
850.10	134.2500
850.39	134.2500
850.69	131.7500
850.99	133.2000
851.29	132.3500
851.59	131.7500
851.88	130.9000
852.18	131.8000
852.48	131.7500
852.77	131.5000
853.07	131.3500
853.37	130.9500
853.67	129.8000
853.96	131.5000
854.26	130.5000
854.56	130.0000
854.85	130.3000
855.15	130.9000
855.45	129.6500
855.74	128.6000
856.04	127.4500
856.34	129.2500
856.63	127.8000
856.93	127.4000
857.23	128.7500
857.52	128.3500
857.82	127.4000
858.11	127.1500
858.41	127.0500
858.71	128.1000
859.00	126.3500
859.30	125.1500
859.59	125.1000
859.89	124.9000
860.19	124.4000
860.48	125.6000
860.78	125.1000
861.07	125.3000
861.37	124.7000
861.66	124.0000
861.96	124.8500
862.26	123.8500
862.55	123.0000
862.85	123.1000
863.14	122.2000
863.44	122.2500
863.73	122.2000
864.03	122.1500
864.32	123.0000
864.62	122.3000
864.91	122.7500
865.21	120.4500
865.50	120.7000
865.80	121.2500
866.09	121.2000
866.39	121.9000
866.68	121.9500
866.97	120.3000
867.27	119.7000
867.56	119.6500
867.86	120.3000
868.15	119.1000
868.45	117.8500
868.74	117.7000
869.03	118.1000
869.33	118.7000
869.62	118.9000
869.92	117.2000
870.21	115.8000
870.50	115.4000
870.80	117.9500
871.09	116.1500
871.39	115.2000
871.68	115.7000
871.97	116.7000
872.27	116.1000
872.56	115.0000
872.85	115.0500
873.15	114.3000
873.44	113.9500
873.73	114.5000
874.03	113.2500
874.32	114.0500
874.61	113.2500
874.90	112.0500
875.20	112.8000
875.49	112.8000
875.78	113.0500
>>>>>End Spectral Data<<<<<
